#Wave		#Intensity
3498.840820	480.730682
3497.341797	453.398193
3495.842773	437.178925
3494.342773	480.420044
3492.841797	441.715088
3491.340820	452.812317
3489.839844	438.219147
3488.337891	414.007233
3486.835938	434.727448
3485.333008	473.074219
3483.829102	429.636871
3482.325195	464.755127
3480.821289	453.390137
3479.316406	434.024597
3477.811523	485.117645
3476.305664	499.365356
3474.798828	428.803131
3473.292969	423.865784
3471.785156	399.743866
3470.277344	437.977356
3468.769531	441.031311
3467.260742	428.109039
3465.751953	467.892883
3464.242188	400.692993
3462.731445	588.875610
3461.220703	445.103027
3459.709961	448.148376
3458.198242	428.871216
3456.686523	465.389465
3455.173828	428.592987
3453.660156	431.639435
3452.147461	375.770660
3450.632812	428.175842
3449.118164	418.489532
3447.603516	443.804840
3446.087891	405.496338
3444.571289	476.899597
3443.055664	422.713593
3441.538086	405.101318
3440.020508	365.266754
3438.502930	431.827271
3436.984375	509.454041
3435.464844	423.613739
3433.945312	440.922577
3432.425781	442.364746
3430.905273	401.010315
3429.383789	495.950195
3427.862305	381.741577
3426.340820	411.703369
3424.818359	395.739807
3423.294922	439.919434
3421.771484	409.719574
3420.248047	428.563141
3418.723633	441.070770
3417.198242	436.185974
3415.672852	342.831604
3414.147461	383.783142
3412.621094	378.921570
3411.093750	408.786285
3409.566406	384.985870
3408.038086	443.220337
3406.509766	455.690094
3404.981445	444.507629
3403.451172	401.817322
3401.921875	378.057648
3400.391602	401.555206
3398.860352	484.857452
3397.329102	407.587982
3395.796875	420.040436
3394.264648	382.159210
3392.731445	421.338379
3391.198242	469.921783
3389.664062	405.351929
3388.129883	416.213867
3386.594727	485.162537
3385.059570	362.575806
3383.523438	448.756683
3381.987305	481.549927
3380.450195	359.084320
3378.913086	445.181702
3377.375000	419.963654
3375.835938	473.087860
3374.297852	455.707092
3372.757812	388.241882
3371.217773	388.114868
3369.677734	417.712738
3368.136719	447.291168
3366.594727	378.353271
3365.052734	457.938904
3363.510742	418.728455
3361.967773	381.105530
3360.423828	426.261200
3358.879883	401.147430
3357.335938	404.136719
3355.791016	447.680450
3354.245117	421.024750
3352.699219	392.827637
3351.152344	444.123718
3349.605469	425.284271
3348.057617	384.654816
3346.509766	421.891754
3344.960938	396.852814
3343.412109	404.501465
3341.862305	385.705566
3340.312500	430.666840
3338.761719	419.645782
3337.210938	385.325897
3335.659180	424.029938
3334.107422	465.813965
3332.554688	409.781647
3331.001953	355.337769
3329.448242	404.858887
3327.893555	441.942047
3326.338867	398.392212
3324.784180	444.750885
3323.228516	390.384583
3321.671875	410.388519
3320.115234	414.897919
3318.557617	397.737671
3317.000000	414.625031
3315.442383	380.463440
3313.882812	423.628784
3312.324219	445.127502
3310.763672	403.264008
3309.204102	432.477997
3307.642578	398.366364
3306.082031	433.736755
3304.519531	413.534424
3302.957031	453.503967
3301.394531	456.438629
3299.831055	388.461578
3298.267578	459.219849
3296.703125	471.392487
3295.137695	384.997620
3293.572266	441.831543
3292.006836	347.808350
3290.439453	373.847595
3288.873047	406.021423
3287.305664	385.900604
3285.737305	393.457977
3284.168945	396.401001
3282.599609	413.165405
3281.030273	402.281036
3279.459961	397.543488
3277.889648	374.396057
3276.318359	409.552155
3274.746094	427.817627
3273.173828	404.682953
3271.601562	410.678772
3270.028320	387.564880
3268.455078	355.277985
3266.879883	405.679077
3265.305664	371.877075
3263.730469	434.478027
3262.154297	426.687592
3260.578125	359.277466
3259.000977	424.877014
3257.423828	444.598175
3255.845703	420.013885
3254.267578	447.357574
3252.688477	460.946289
3251.109375	418.071075
3249.529297	408.780823
3247.948242	388.823090
3246.367188	423.752991
3244.786133	405.327148
3243.203125	394.529877
3241.621094	398.967468
3240.038086	407.968842
3238.454102	456.530151
3236.870117	418.347229
3235.285156	401.480164
3233.700195	370.941925
3232.114258	451.365601
3230.527344	439.061890
3228.941406	323.491852
3227.353516	423.588165
3225.765625	431.036224
3224.177734	433.927582
3222.587891	359.463959
3220.999023	371.474365
3219.409180	368.319550
3217.818359	428.805786
3216.227539	434.722168
3214.635742	414.893005
3213.043945	379.939911
3211.451172	414.617279
3209.857422	415.992126
3208.263672	391.658691
3206.669922	406.645355
3205.075195	379.308685
3203.479492	415.439026
3201.883789	380.566559
3200.287109	403.085144
3198.690430	430.116241
3197.092773	457.129242
3195.495117	438.878967
3193.896484	401.041016
3192.297852	406.936157
3190.698242	408.307281
3189.097656	394.615753
3187.497070	385.450287
3185.896484	418.435455
3184.294922	386.698090
3182.692383	440.718964
3181.089844	412.002533
3179.486328	407.355682
3177.882812	432.764984
3176.278320	467.170197
3174.672852	417.459778
3173.067383	411.315887
3171.461914	394.671448
3169.855469	426.042908
3168.248047	386.909790
3166.640625	415.264465
3165.032227	421.120392
3163.423828	441.953827
3161.814453	410.355621
3160.205078	435.670044
3158.594727	425.047943
3156.984375	390.494507
3155.373047	447.198608
3153.760742	457.515137
3152.148438	406.544159
3150.535156	418.361420
3148.921875	439.132568
3147.307617	450.930878
3145.693359	434.360901
3144.078125	456.597809
3142.462891	362.471039
3140.846680	444.363037
3139.229492	426.326447
3137.612305	411.282196
3135.994141	442.427216
3134.375977	457.170593
3132.756836	393.005219
3131.137695	382.456482
3129.517578	492.415070
3127.897461	425.327850
3126.276367	443.025238
3124.654297	447.335205
3123.032227	445.699554
3121.409180	436.639099
3119.786133	432.038666
3118.162109	391.821136
3116.538086	437.683533
3114.913086	437.536682
3113.288086	441.837860
3111.662109	417.974701
3110.035156	428.206146
3108.408203	490.272125
3106.780273	479.742706
3105.152344	454.418335
3103.523438	414.313995
3101.894531	507.364105
3100.264648	476.140961
3098.634766	470.068146
3097.002930	539.362244
3095.372070	499.296326
3093.740234	500.605164
3092.107422	496.008179
3090.474609	470.754120
3088.840820	569.435608
3087.206055	454.215454
3085.571289	518.928711
3083.936523	508.437927
3082.300781	543.624451
3080.664062	497.786499
3079.027344	515.285828
3077.389648	557.793030
3075.751953	506.111267
3074.113281	523.589844
3072.473633	466.073212
3070.833984	490.902191
3069.193359	455.474243
3067.552734	514.071777
3065.911133	535.922668
3064.269531	538.677490
3062.626953	493.009827
3060.984375	538.314209
3059.340820	536.666321
3057.696289	496.908447
3056.051758	504.067322
3054.406250	452.628601
3052.760742	421.725006
3051.114258	512.340027
3049.467773	463.876953
3047.820312	484.200073
3046.171875	462.101318
3044.523438	445.864838
3042.874023	499.784424
3041.224609	449.946136
3039.574219	497.986267
3037.922852	489.058685
3036.271484	434.896149
3034.620117	431.831299
3032.967773	462.311584
3031.314453	479.650024
3029.661133	482.402557
3028.006836	434.161072
3026.351562	486.445404
3024.696289	516.855286
3023.041016	464.284546
3021.384766	408.839447
3019.727539	420.336609
3018.069336	455.089264
3016.412109	457.842041
3014.752930	462.045837
3013.093750	457.531830
3011.433594	450.116821
3009.773438	455.770233
3008.112305	438.203644
3006.451172	430.802490
3004.789062	406.006012
3003.126953	482.693390
3001.463867	482.529633
2999.799805	411.387146
2998.135742	432.968353
2996.470703	463.220245
2994.804688	525.287048
2993.138672	455.672882
2991.472656	493.116455
2989.805664	426.451477
2988.137695	434.977264
2986.469727	518.617249
2984.800781	454.899475
2983.130859	486.504852
2981.460938	476.237488
2979.791016	476.075592
2978.119141	484.566681
2976.448242	461.335144
2974.775391	433.795776
2973.102539	439.410980
2971.429688	473.826324
2969.755859	462.147400
2968.081055	428.888031
2966.406250	464.710327
2964.730469	489.002228
2963.053711	513.277527
2961.376953	446.988647
2959.700195	537.353088
2958.021484	486.900116
2956.343750	480.991058
2954.664062	446.379822
2952.984375	467.749908
2951.304688	477.630768
2949.624023	510.446198
2947.942383	494.505280
2946.260742	495.769501
2944.578125	484.141418
2942.894531	478.248718
2941.210938	495.262268
2939.526367	515.125916
2937.841797	565.014709
2936.156250	456.147247
2934.470703	506.021912
2932.784180	517.280762
2931.096680	422.825409
2929.409180	492.651825
2927.720703	489.628540
2926.032227	478.045227
2924.342773	485.014404
2922.652344	479.144531
2920.961914	524.597900
2919.270508	497.342590
2917.579102	558.428711
2915.886719	488.458008
2914.194336	489.714508
2912.500000	490.970032
2910.806641	526.367371
2909.111328	521.920837
2907.416016	533.115356
2905.720703	510.194336
2904.024414	512.860962
2902.327148	464.399170
2900.629883	468.499176
2898.931641	471.177094
2897.233398	556.138977
2895.533203	527.583679
2893.833984	446.591095
2892.133789	525.804749
2890.432617	498.705719
2888.730469	525.444214
2887.028320	513.937561
2885.325195	546.313660
2883.622070	496.606995
2881.917969	547.353149
2880.213867	549.993042
2878.508789	500.335999
2876.802734	517.118958
2875.096680	560.726013
2873.389648	525.235413
2871.682617	582.923950
2869.974609	517.819824
2868.265625	554.314087
2866.556641	586.553223
2864.846680	570.847168
2863.135742	574.877930
2861.424805	578.905884
2859.713867	588.563171
2858.000977	613.696838
2856.288086	583.937134
2854.575195	551.384583
2852.861328	594.784241
2851.146484	573.495178
2849.431641	649.175415
2847.715820	588.551636
2845.999023	586.944824
2844.282227	620.431213
2842.565430	645.475281
2840.846680	591.949402
2839.127930	503.404327
2837.409180	657.424133
2835.689453	557.707092
2833.968750	530.899841
2832.248047	663.746033
2830.526367	634.120850
2828.803711	622.707397
2827.081055	629.486938
2825.357422	587.318420
2823.633789	616.471558
2821.909180	612.066589
2820.183594	564.359680
2818.458008	603.265381
2816.731445	630.976440
2815.004883	619.594666
2813.277344	613.800659
2811.548828	555.018799
2809.820312	545.068787
2808.090820	565.783752
2806.360352	558.622864
2804.629883	554.251953
2802.898438	555.452454
2801.166992	567.785095
2799.434570	582.891357
2797.701172	657.785767
2795.967773	549.123657
2794.233398	554.492493
2792.499023	594.588135
2790.763672	654.098267
2789.027344	606.670898
2787.291016	616.175354
2785.553711	606.250854
2783.816406	682.316040
2782.078125	580.876831
2780.338867	616.707947
2778.599609	649.743347
2776.859375	628.744690
2775.118164	656.215149
2773.376953	636.612488
2771.634766	641.925537
2769.892578	598.830566
2768.148438	605.535339
2766.405273	579.066895
2764.661133	676.955383
2762.916016	585.570374
2761.169922	611.598206
2759.423828	680.391052
2757.676758	638.766113
2755.929688	668.885498
2754.181641	647.973145
2752.432617	643.613525
2750.683594	642.012207
2748.933594	683.106018
2747.182617	644.319580
2745.431641	677.126160
2743.680664	632.865295
2741.927734	635.395874
2740.174805	646.173645
2738.421875	676.184753
2736.666992	647.098022
2734.912109	668.847290
2733.157227	656.258240
2731.401367	620.346191
2729.644531	699.704468
2727.887695	648.715637
2726.129883	680.023071
2724.371094	670.192444
2722.612305	719.281128
2720.852539	679.312683
2719.091797	680.445068
2717.331055	684.313782
2715.569336	647.135193
2713.807617	668.792358
2712.044922	665.824768
2710.281250	664.225830
2708.517578	704.981445
2706.752930	695.175110
2704.987305	719.507751
2703.221680	689.230774
2701.455078	693.083252
2699.688477	673.747253
2697.920898	670.785217
2696.152344	722.341492
2694.383789	720.726746
2692.614258	727.284790
2690.843750	716.138855
2689.073242	709.083557
2687.301758	706.114685
2685.530273	768.430298
2683.756836	692.025269
2681.984375	735.274597
2680.209961	667.086060
2678.435547	721.178833
2676.660156	674.765503
2674.884766	723.388672
2673.108398	740.772949
2671.332031	754.076172
2669.553711	715.850403
2667.775391	758.969482
2665.997070	735.671631
2664.217773	763.855347
2662.437500	686.416687
2660.657227	713.244263
2658.875977	742.758789
2657.093750	722.211609
2655.310547	720.606445
2653.527344	727.111328
2651.744141	703.888794
2649.959961	823.841797
2648.174805	746.597900
2646.388672	712.595642
2644.602539	698.854187
2642.815430	718.838928
2641.028320	740.157654
2639.239258	719.682007
2637.451172	763.888428
2635.661133	771.700806
2633.871094	737.772278
2632.081055	792.691956
2630.289062	746.671448
2628.497070	794.824768
2626.705078	799.923035
2624.911133	732.445007
2623.117188	768.460999
2621.323242	769.533752
2619.528320	780.003235
2617.732422	795.833435
2615.935547	753.964600
2614.138672	736.265015
2612.340820	828.509338
2610.542969	773.271179
2608.744141	766.300537
2606.944336	774.065979
2605.144531	769.777161
2603.342773	845.787476
2601.541992	817.395691
2599.739258	819.782349
2597.936523	806.124878
2596.133789	803.167908
2594.329102	796.205200
2592.525391	794.589050
2590.719727	807.658569
2588.914062	774.011108
2587.107422	811.090942
2585.299805	813.471863
2583.492188	794.521545
2581.683594	872.865662
2579.875000	795.292908
2578.064453	804.333862
2576.254883	801.387390
2574.443359	872.964233
2572.631836	881.967712
2570.819336	821.815247
2569.006836	788.291626
2567.193359	867.744507
2565.378906	855.482300
2563.563477	885.721985
2561.748047	868.151917
2559.932617	812.111755
2558.115234	872.843994
2556.297852	818.167480
2554.479492	849.691711
2552.661133	848.065918
2550.841797	815.974487
2549.021484	851.438110
2547.201172	852.460327
2545.379883	853.481689
2543.557617	884.925598
2541.735352	834.365051
2539.912109	810.276611
2538.087891	841.701965
2536.263672	874.425781
2534.438477	829.221619
2532.612305	880.405640
2530.786133	923.636230
2528.958984	885.057312
2527.130859	897.928772
2525.302734	897.610229
2523.473633	855.128235
2521.643555	828.481873
2519.813477	907.188232
2517.982422	923.976807
2516.151367	924.964478
2514.318359	904.906921
2512.485352	932.196350
2510.652344	870.091309
2508.817383	947.300476
2506.982422	902.308105
2505.147461	982.076538
2503.310547	916.103882
2501.473633	976.130310
2499.636719	929.879395
2497.797852	1025.256714
2495.959961	968.536072
2494.120117	941.988708
2492.280273	957.369507
2490.439453	937.390686
2488.597656	1048.299805
2486.755859	966.813599
2484.913086	944.236572
2483.069336	983.120544
2481.225586	1063.796631
2479.379883	962.823975
2477.535156	958.563049
2475.688477	941.250183
2473.841797	1002.250305
2471.995117	978.411072
2470.146484	1019.792847
2468.297852	1067.662964
2466.448242	972.151978
2464.598633	990.042786
2462.748047	940.205017
2460.896484	980.223938
2459.044922	1046.239990
2457.192383	1015.947449
2455.338867	1045.493042
2453.484375	1011.322266
2451.629883	1087.627686
2449.774414	980.723511
2447.918945	1034.910400
2446.062500	1018.963989
2444.205078	1043.253784
2442.346680	1096.062500
2440.488281	1077.517456
2438.628906	1069.354980
2436.768555	1063.789673
2434.908203	990.874451
2433.046875	1094.103760
2431.184570	1071.708496
2429.322266	1070.031006
2427.458984	1054.127075
2425.594727	1064.093262
2423.730469	1080.514404
2421.865234	1060.747070
2419.999023	1071.991089
2418.132812	1088.391235
2416.265625	1053.154175
2414.397461	1046.325928
2412.528320	1102.697876
2410.659180	1042.997314
2408.789062	1086.441772
2406.918945	1073.168945
2405.047852	1068.920410
2403.175781	1087.847778
2401.302734	1133.786987
2399.429688	1193.844238
2397.555664	1116.255127
2395.680664	1105.569946
2393.805664	1111.598389
2391.929688	1127.899292
2390.052734	1130.062500
2388.174805	1106.549805
2386.296875	1121.551147
2384.417969	1118.582520
2382.539062	1138.697510
2380.659180	1143.415527
2378.778320	1146.848511
2376.896484	1192.549683
2375.014648	1144.743164
2373.131836	1198.091919
2371.248047	1137.521851
2369.364258	1162.694336
2367.479492	1192.963013
2365.593750	1207.871582
2363.708008	1195.937256
2361.820312	1144.416504
2359.933594	1191.245483
2358.044922	1171.671387
2356.156250	1217.180542
2354.266602	1198.886230
2352.375977	1151.280884
2350.485352	1201.845459
2348.593750	1201.412109
2346.701172	1193.337402
2344.808594	1205.638184
2342.915039	1256.109375
2341.020508	1192.046387
2339.125000	1148.377197
2337.229492	1217.882935
2335.333008	1246.672119
2333.435547	1204.300049
2331.538086	1233.072876
2329.639648	1218.663696
2327.740234	1219.492432
2325.840820	1211.440674
2323.940430	1304.839722
2322.039062	1244.790527
2320.136719	1263.347778
2318.234375	1241.357300
2316.331055	1259.901855
2314.426758	1248.054199
2312.522461	1274.174438
2310.617188	1286.362061
2308.710938	1230.262817
2306.804688	1299.334473
2304.897461	1271.067383
2302.989258	1340.073853
2301.080078	1285.297974
2299.170898	1207.843506
2297.260742	1313.385132
2295.349609	1276.334473
2293.437500	1268.307495
2291.525391	1305.656494
2289.612305	1331.639526
2287.699219	1287.078735
2285.785156	1324.379517
2283.870117	1318.865356
2281.954102	1376.255005
2280.037109	1270.121826
2278.120117	1330.001221
2276.202148	1319.465454
2274.284180	1364.208984
2272.365234	1343.622070
2270.445312	1364.473755
2268.524414	1394.093628
2266.603516	1303.273682
2264.680664	1376.780151
2262.758789	1356.224854
2260.834961	1351.973022
2258.911133	1385.299927
2256.986328	1398.569092
2255.060547	1445.622070
2253.134766	1376.282227
2251.207031	1432.063599
2249.280273	1401.536499
2247.351562	1426.022461
2245.422852	1447.991699
2243.493164	1422.486816
2241.562500	1421.968994
2239.630859	1413.963257
2237.699219	1459.606812
2235.766602	1414.180542
2233.833984	1417.405151
2231.899414	1409.411743
2229.964844	1498.589233
2228.029297	1408.384521
2226.093750	1415.339844
2224.157227	1485.751709
2222.219727	1549.892334
2220.281250	1515.754028
2218.342773	1471.696533
2216.403320	1445.066284
2214.462891	1399.824097
2212.521484	1535.892090
2210.580078	1517.954956
2208.637695	1502.511963
2206.694336	1529.249146
2204.750000	1450.582275
2202.805664	1578.945923
2200.860352	1491.645386
2198.915039	1510.915527
2196.967773	1532.647339
2195.020508	1532.086914
2193.072266	1505.547729
2191.124023	1598.982178
2189.173828	1509.391357
2187.223633	1585.455078
2185.272461	1593.521973
2183.321289	1599.113037
2181.369141	1552.855469
2179.416016	1564.626343
2177.461914	1518.414551
2175.507812	1614.034790
2173.551758	1540.721558
2171.595703	1607.923950
2169.639648	1629.504883
2167.681641	1594.433472
2165.723633	1602.464478
2163.764648	1595.725464
2161.805664	1553.324707
2159.845703	1598.243530
2157.883789	1659.105713
2155.922852	1624.098511
2153.959961	1635.783325
2151.997070	1615.541138
2150.033203	1676.306274
2148.068359	1665.877197
2146.103516	1653.002930
2144.136719	1640.137695
2142.169922	1697.127319
2140.203125	1680.579956
2138.234375	1622.412720
2136.265625	1665.880859
2134.295898	1676.280640
2132.326172	1654.871460
2130.354492	1719.064087
2128.382812	1692.765381
2126.410156	1688.477417
2124.436523	1654.880737
2122.462891	1717.756836
2120.488281	1660.985596
2118.512695	1696.973145
2116.536133	1731.714355
2114.559570	1714.009766
2112.582031	1770.653687
2110.603516	1770.001465
2108.624023	1769.349365
2106.644531	1738.265625
2104.664062	1791.165161
2102.682617	1781.990356
2100.701172	1763.094482
2098.717773	1792.831299
2096.734375	1735.063721
2094.750000	1775.719482
2092.765625	1767.779541
2090.779297	1803.537842
2088.792969	1777.394287
2086.805664	1798.568359
2084.818359	1797.904419
2082.829102	1782.697754
2080.839844	1805.056885
2078.849609	1834.665161
2076.859375	1824.302856
2074.868164	1797.006470
2072.875000	1859.244507
2070.882812	1773.912476
2068.888672	1856.661377
2066.894531	1853.558228
2064.898438	1890.316650
2062.903320	1840.113037
2060.906250	1897.367188
2058.908203	1911.143433
2056.910156	1880.283936
2054.911133	1845.830078
2052.912109	1882.507690
2050.911133	1944.457275
2048.910156	1910.016724
2046.908203	1911.716919
2044.905273	1877.313354
2042.902344	1931.953857
2040.898438	1914.402588
2038.893555	1926.915649
2036.887695	1900.967163
2034.880859	1870.232788
2032.874023	1936.780151
2030.866211	1897.652588
2028.857422	1905.347290
2026.848633	1878.253540
2024.837891	1944.697754
2022.827148	1935.586304
2020.815430	1974.403564
2018.803711	1965.287109
2016.790039	1948.994019
2014.776367	2012.893188
2012.761719	2010.948975
2010.747070	2025.747559
2008.730469	2035.753174
2006.713867	2027.826660
2004.696289	2035.434326
2002.677734	1972.586304
2000.659180	2041.082275
1998.638672	2089.242920
1996.618164	2051.490967
1994.596680	2076.957764
1992.575195	2038.045898
1990.551758	2056.349609
1988.528320	2100.840088
1986.503906	2076.247559
1984.479492	2032.631836
1982.453125	2087.786865
1980.426758	2119.116699
1978.399414	2138.535645
1976.371094	2100.901367
1974.342773	2072.797607
1972.312500	2178.891357
1970.282227	2236.239990
1968.250977	2217.608154
1966.219727	2171.709717
1964.186523	2118.731445
1962.153320	2172.459717
1960.119141	2125.443359
1958.083984	2116.359863
1956.048828	2132.143555
1954.011719	2094.661133
1951.974609	2161.308838
1949.936523	2168.779053
1947.897461	2151.419189
1945.858398	2251.056152
1943.818359	2234.858887
1941.777344	2228.119385
1939.735352	2268.597900
1937.692383	2198.135986
1935.649414	2249.209473
1933.605469	2270.769043
1931.560547	2185.062500
1929.514648	2349.182373
1927.468750	2258.798828
1925.420898	2347.423584
1923.373047	2237.102051
1921.324219	2343.312988
1919.275391	2314.213135
1917.224609	2298.064697
1915.173828	2331.279785
1913.122070	2318.660156
1911.069336	2275.520996
1909.016602	2346.264893
1906.961914	2366.503906
1904.907227	2390.245850
1902.851562	2282.660889
1900.795898	2359.153809
1898.738281	2415.672852
1896.680664	2364.409912
1894.622070	2344.791992
1892.562500	2338.060547
1890.501953	2362.917236
1888.441406	2346.828369
1886.378906	2382.182129
1884.316406	2371.939453
1882.252930	2389.736084
1880.189453	2429.702637
1878.124023	2439.293457
1876.058594	2451.209717
1873.992188	2400.139160
1871.924805	2398.070557
1869.856445	2506.713379
1867.788086	2437.039062
1865.718750	2490.853027
1863.648438	2477.110840
1861.577148	2423.815430
1859.504883	2458.961182
1857.432617	2480.127197
1855.359375	2522.198242
1853.285156	2513.114990
1851.209961	2480.809326
1849.133789	2548.372803
1847.057617	2539.288330
1844.979492	2527.889893
1842.901367	2504.902588
1840.823242	2531.779541
1838.743164	2525.030518
1836.662109	2509.019043
1834.581055	2601.864502
1832.499023	2604.354736
1830.416016	2619.570312
1828.333008	2600.075439
1826.248047	2571.345215
1824.163086	2631.628418
1822.077148	2534.743652
1819.990234	2588.064941
1817.902344	2595.167969
1815.814453	2642.654785
1813.724609	2551.677979
1811.634766	2671.791260
1809.543945	2651.185059
1807.452148	2631.746094
1805.360352	2684.885986
1803.267578	2699.989258
1801.172852	2718.533447
1799.078125	2735.912598
1796.983398	2681.973389
1794.886719	2682.107422
1792.789062	2768.431152
1790.691406	2677.778564
1788.592773	2672.170654
1786.493164	2740.031982
1784.393555	2704.569580
1782.291992	2794.159424
1780.190430	2747.236328
1778.087891	2711.809814
1775.984375	2804.730469
1773.879883	2817.409912
1771.774414	2761.387939
1769.668945	2811.838867
1767.562500	2734.124512
1765.455078	2719.364014
1763.346680	2767.485596
1761.237305	2772.147949
1759.127930	2869.328369
1757.016602	2855.678223
1754.905273	2861.441406
1752.792969	2804.447510
1750.679688	2874.093262
1748.566406	2858.179688
1746.451172	2903.818359
1744.335938	2844.614014
1742.219727	2988.156982
1740.102539	2902.782471
1737.984375	2856.161377
1735.866211	3009.771484
1733.746094	2985.884766
1731.625977	2954.059326
1729.504883	3074.505859
1727.382812	3108.542969
1725.259766	3135.741699
1723.136719	3153.839844
1721.011719	3419.233887
1718.886719	3425.868896
1716.760742	3582.131104
1714.633789	3688.414795
1712.506836	3931.676025
1710.377930	3890.546387
1708.249023	4040.730957
1706.119141	3997.326416
1703.988281	3999.193848
1701.856445	3981.839355
1699.723633	4034.565430
1697.590820	4029.635742
1695.456055	3951.306396
1693.321289	4150.729980
1691.185547	4155.914551
1689.048828	4174.629883
1686.912109	4098.616699
1684.773438	4005.753662
1682.634766	3919.721191
1680.494141	3903.580811
1678.353516	3841.293701
1676.212891	3639.505127
1674.070312	3522.241943
1671.926758	3393.822510
1669.783203	3291.354736
1667.638672	3410.326904
1665.493164	3278.725830
1663.346680	3324.627930
1661.199219	3300.906982
1659.050781	3315.349609
1656.902344	3272.583008
1654.752930	3299.355957
1652.601562	3337.314209
1650.450195	3249.777344
1648.298828	3230.614258
1646.145508	3270.791748
1643.991211	3300.867432
1641.836914	3323.089600
1639.681641	3322.932373
1637.525391	3264.656982
1635.368164	3382.946289
1633.209961	3280.019287
1631.050781	3373.650635
1628.891602	3367.890869
1626.731445	3363.250732
1624.570312	3364.188477
1622.408203	3654.933594
1620.245117	7958.876465
1618.081055	7396.692871
1615.916016	6794.858887
1613.750977	9512.259766
1611.584961	10150.517578
1609.417969	4420.515625
1607.250000	4855.693359
1605.081055	5189.414062
1602.911133	5600.632812
1600.741211	5696.188477
1598.569336	5836.067383
1596.397461	5812.738770
1594.224609	5845.990234
1592.050781	5946.843262
1589.875977	5919.062012
1587.700195	5862.498047
1585.524414	5883.492676
1583.346680	6005.202637
1581.168945	5846.866699
1578.990234	6000.571289
1576.810547	5872.209961
1574.629883	5722.946777
1572.448242	5600.312988
1570.266602	5390.525879
1568.083008	5071.606934
1565.899414	4605.059570
1563.714844	4299.925293
1561.529297	4010.463623
1559.342773	3926.244873
1557.155273	3833.275391
1554.967773	3748.086914
1552.778320	3753.243652
1550.588867	3770.501953
1548.398438	3773.444336
1546.206055	3678.509766
1544.014648	3773.823242
1541.821289	3741.594971
1539.626953	3709.391113
1537.431641	3782.619385
1535.236328	3719.690430
1533.040039	3856.491211
1530.841797	3830.869629
1528.643555	3829.385498
1526.444336	3781.875000
1524.245117	3917.341064
1522.043945	3864.356445
1519.841797	3901.169434
1517.639648	3888.715088
1515.436523	3886.113037
1513.232422	3815.725830
1511.026367	3884.191650
1508.821289	3871.759521
1506.614258	3767.603516
1504.406250	3856.746582
1502.198242	3887.985596
1499.988281	3758.853760
1497.778320	3798.827637
1495.567383	3822.420410
1493.354492	3808.950684
1491.142578	3798.757812
1488.928711	3743.936523
1486.713867	3818.658203
1484.498047	3807.383057
1482.282227	3868.971680
1480.065430	3738.116211
1477.846680	3831.192383
1475.627930	3777.567139
1473.408203	3760.896973
1471.187500	3763.774170
1468.965820	3750.375244
1466.744141	3782.532715
1464.520508	3735.530518
1462.296875	3848.936768
1460.071289	3855.019287
1457.845703	3868.675537
1455.619141	3840.109375
1453.391602	3767.206299
1451.163086	3899.841797
1448.933594	3848.591797
1446.704102	3884.913330
1444.472656	3814.263428
1442.241211	3835.450928
1440.007812	3819.921875
1437.774414	3856.194336
1435.540039	3933.421875
1433.304688	3868.277100
1431.068359	3851.678711
1428.831055	3899.728516
1426.592773	3851.900146
1424.354492	3953.732178
1422.114258	4003.835449
1419.874023	3930.205566
1417.632812	4022.208496
1415.389648	4045.354736
1413.146484	3954.603027
1410.902344	4019.638184
1408.657227	4012.697998
1406.412109	3996.104492
1404.165039	4116.821777
1401.916992	4119.499023
1399.668945	4156.470703
1397.418945	3983.420898
1395.168945	4022.557129
1392.917969	4111.977539
1390.666016	4122.137695
1388.413086	4232.841309
1386.159180	4242.943848
1383.904297	4238.073730
1381.648438	4122.087402
1379.392578	4366.117676
1377.134766	4360.134277
1374.876953	4513.166504
1372.617188	4685.279785
1370.357422	4842.327637
1368.096680	5013.108398
1365.834961	5364.892578
1363.572266	5608.823730
1361.308594	6025.040527
1359.043945	6351.530762
1356.778320	6822.446289
1354.512695	7339.780762
1352.245117	7635.600586
1349.977539	7774.985840
1347.708008	8094.828613
1345.438477	8108.632324
1343.167969	8168.061035
1340.896484	8085.277832
1338.623047	8021.646484
1336.349609	8033.330078
1334.076172	7939.035156
1331.800781	7920.020020
1329.524414	7726.310059
1327.247070	7500.998535
1324.969727	7294.907227
1322.690430	6958.893555
1320.411133	6595.656738
1318.130859	6251.726562
1315.849609	5800.319824
1313.566406	5366.162598
1311.283203	4870.072266
1308.999023	4641.308105
1306.713867	4555.103027
1304.427734	4424.686523
1302.141602	4325.986816
1299.853516	4311.637695
1297.564453	4232.012695
1295.275391	4305.074707
1292.984375	4313.895508
1290.693359	4194.394531
1288.401367	4256.868164
1286.107422	4204.741211
1283.813477	4210.432129
1281.518555	4154.162109
1279.222656	4206.052734
1276.925781	4265.245605
1274.627930	4281.388184
1272.329102	4247.192383
1270.030273	4274.855469
1267.729492	4298.305664
1265.427734	4291.367676
1263.125977	4349.333984
1260.822266	4224.140625
1258.518555	4328.107422
1256.212891	4256.341797
1253.907227	4209.714844
1251.600586	4267.593750
1249.292969	4307.672852
1246.983398	4337.280273
1244.673828	4340.777344
1242.363281	4225.363281
1240.051758	4183.024414
1237.739258	4350.202637
1235.426758	4319.305176
1233.112305	4316.548828
1230.796875	4409.563477
1228.481445	4297.512695
1226.164062	4443.505859
1223.845703	4364.800293
1221.527344	4390.087891
1219.208008	4410.159668
1216.886719	4479.023926
1214.565430	4486.585449
1212.243164	4567.814453
1209.918945	4664.536621
1207.594727	4770.512207
1205.269531	4813.180176
1202.943359	4880.677246
1200.616211	4955.369141
1198.288086	5009.296387
1195.958984	4989.709961
1193.628906	5048.750000
1191.298828	4992.972656
1188.966797	4971.345703
1186.633789	5090.240723
1184.300781	5093.375000
1181.965820	5151.218262
1179.629883	5071.771484
1177.293945	5071.811523
1174.956055	5225.479980
1172.618164	5122.390137
1170.279297	5094.589355
1167.938477	5025.616211
1165.597656	5004.050781
1163.255859	4912.527832
1160.913086	4976.396484
1158.568359	4956.929199
1156.223633	4934.392578
1153.877930	4945.776367
1151.531250	4943.799805
1149.183594	4928.478027
1146.834961	5004.494141
1144.485352	5014.801270
1142.134766	4969.731445
1139.783203	5051.785645
1137.431641	4971.902344
1135.078125	4921.779785
1132.723633	4930.046387
1130.368164	5002.770996
1128.012695	4881.092773
1125.655273	4941.506836
1123.296875	4919.086426
1120.938477	4946.742188
1118.578125	5021.351562
1116.217773	5290.875000
1113.855469	5450.997559
1111.493164	5688.510254
1109.128906	6010.456543
1106.764648	6210.861328
1104.399414	6305.152344
1102.032227	6377.980469
1099.665039	6288.894043
1097.296875	6324.018066
1094.926758	6386.575195
1092.556641	6300.638672
1090.185547	6443.440430
1087.813477	6446.946777
1085.439453	6429.123535
1083.065430	6418.418457
1080.690430	6470.630859
1078.314453	6423.400879
1075.937500	6367.082520
1073.559570	5959.137695
1071.180664	5608.250488
1068.800781	5410.553223
1066.419922	5246.417969
1064.038086	5232.163574
1061.655273	5106.663574
1059.271484	5168.300781
1056.886719	5089.412598
1054.500977	5060.086914
1052.114258	5093.390625
1049.726562	4997.464844
1047.337891	5079.195312
1044.949219	4993.436035
1042.558594	5023.683105
1040.166992	5058.943848
1037.774414	5015.601562
1035.380859	5079.028809
1032.986328	5109.188477
1030.591797	5073.923340
1028.195312	5040.697266
1025.797852	5091.943848
1023.399414	5070.793457
1021.000000	5176.227051
1018.600586	5115.897949
1016.199219	5075.689941
1013.796875	5165.940918
1011.393555	5125.742676
1008.990234	5147.729004
1006.584961	5213.788086
1004.178711	5195.652344
1001.772461	5200.558594
999.364258	5157.418945
996.955078	5242.370605
994.544922	5218.247070
992.134766	5216.133789
989.722656	5322.937988
987.309570	5216.903320
984.895508	5229.766113
982.481445	5315.472656
980.065430	5323.294434
977.648438	5197.481445
975.231445	5237.239746
972.812500	5231.130371
970.392578	5322.632324
967.971680	5330.428711
965.550781	5296.419434
963.127930	5261.441406
960.704102	5297.092285
958.279297	5256.176270
955.853516	5223.240723
953.427734	5289.647949
951.000000	5235.874512
948.571289	5157.334473
946.141602	5223.684082
943.710938	5287.003418
941.279297	5414.695312
938.847656	5298.556641
936.414062	5322.150391
933.979492	5381.361816
931.543945	5331.673828
929.107422	5345.330078
926.669922	5307.559570
924.231445	5362.722168
921.791992	5492.921387
919.351562	5406.743652
916.910156	5452.910645
914.467773	5416.152832
912.024414	5431.699219
909.580078	5424.555664
907.134766	5528.780273
904.688477	5330.486816
902.241211	5439.585449
899.791992	5413.742676
897.342773	5457.777832
894.892578	5458.500977
892.441406	5489.698730
889.989258	5511.041992
887.535156	5383.056152
885.081055	5530.107422
882.625977	5581.831055
880.168945	5691.396484
877.711914	5869.520020
875.252930	6147.487793
872.793945	6390.930176
870.333008	6558.750488
867.872070	6734.264160
865.409180	6971.291504
862.946289	6845.172852
860.481445	6975.366211
858.016602	6916.792969
855.549805	7020.465332
853.082031	6964.848633
850.613281	6985.427246
848.144531	7018.673828
845.673828	7023.602051
843.202148	6950.516602
840.729492	7022.719238
838.255859	6829.851562
835.781250	6681.939453
833.305664	6304.400391
830.829102	6060.484863
828.351562	5818.713379
825.873047	5825.076172
823.393555	5718.690918
820.913086	5701.770508
818.430664	5730.504883
815.948242	5751.448242
813.464844	5777.224609
810.979492	5791.339355
808.494141	5755.996094
806.006836	5724.556641
803.519531	5833.605469
801.030273	5760.519531
798.540039	5631.353027
796.049805	5713.210938
793.557617	5672.175293
791.064453	5700.776367
788.570312	5728.385742
786.076172	5717.333984
783.580078	5770.980957
781.083008	5735.789551
778.584961	5708.343262
776.084961	5689.597656
773.584961	5756.656738
771.083984	5721.523438
768.582031	5673.896973
766.079102	5694.663574
763.574219	5709.637207
761.069336	5730.368652
758.562500	5747.235840
756.055664	5790.038574
753.546875	5742.492676
751.037109	5759.329590
748.527344	5713.752441
746.015625	5709.473633
743.502930	5830.849121
740.989258	5726.809082
738.474609	5750.318848
735.958984	5785.303711
733.442383	5796.318359
730.924805	5829.337891
728.405273	5765.691895
725.885742	5791.999023
723.365234	5834.535156
720.842773	5808.230469
718.320312	5788.632324
715.795898	5817.745117
713.270508	5862.103027
710.745117	6006.596680
708.217773	5844.850586
705.689453	5858.634277
703.160156	5724.713379
700.629883	5770.915527
698.098633	5752.337891
695.566406	5844.167480
693.032227	5839.841309
690.498047	5903.029297
687.962891	5910.084961
685.425781	5997.890137
682.888672	5911.828125
680.349609	6040.376465
677.809570	5997.065430
675.268555	6081.837891
672.726562	5982.603516
670.184570	5952.634277
667.639648	5998.474121
665.094727	6075.523438
662.548828	5980.236328
660.001953	6108.317871
657.453125	5911.898438
654.904297	6016.264648
652.353516	5968.403320
649.802734	5999.923828
647.250000	5871.850586
644.696289	5889.225586
642.141602	5781.113281
639.585938	5795.679688
637.029297	5959.164062
634.471680	6096.128906
631.913086	6184.003418
629.352539	6270.861816
626.791992	6417.872070
624.229492	6415.196289
621.666992	6511.247070
619.102539	6514.169922
616.537109	6533.999023
613.970703	6552.871094
611.403320	6400.885254
608.834961	6524.882324
606.265625	6429.305664
603.694336	6552.246582
601.123047	6399.570312
598.549805	6494.315918
595.976562	6473.811523
593.401367	6405.589844
590.825195	6028.690918
588.248047	6077.604004
585.669922	5962.889648
583.090820	5954.789062
580.510742	5942.023438
577.928711	6004.888672
575.346680	5933.317871
572.762695	5948.557129
570.177734	6027.187012
567.592773	5947.303711
565.005859	5982.078125
562.417969	6002.852539
559.829102	6025.470215
557.238281	5974.560059
554.647461	5996.237305
552.055664	6005.808594
549.461914	6016.299805
546.867188	6106.666992
544.271484	5966.683105
541.675781	6028.220215
539.077148	6024.762207
536.478516	6088.074707
533.878906	6110.545898
531.278320	6027.367188
528.675781	6093.372559
526.072266	6009.342285
523.468750	6038.280273
520.863281	6141.194336
518.256836	6190.391113
515.649414	6118.469727
513.040039	6104.810059
510.430664	6112.399902
507.820312	6228.904297
505.208008	6053.740234
502.594727	6075.171875
499.980469	6099.349121
497.365234	6138.248535
494.749023	6195.536621
492.131836	6068.625977
489.512695	6068.829590
486.893555	6127.909668
484.272461	6011.298340
481.651367	6055.642578
479.028320	6002.554199
476.404297	6095.537598
473.778320	6041.556152
471.152344	6054.606445
468.525391	5944.731934
465.896484	5951.391113
463.266602	6021.280273
460.635742	6005.911621
458.003906	5982.313477
455.371094	5963.310059
452.737305	6032.154785
450.101562	6031.434082
447.465820	6059.051270
444.828125	6093.953613
442.189453	6055.754395
439.549805	5965.544434
436.909180	6020.515137
434.267578	6008.844727
431.624023	5962.532715
428.980469	6092.169434
426.334961	6067.724121
423.688477	5974.996094
421.041016	6008.876953
418.392578	6067.294922
415.743164	6097.466309
413.091797	6003.967773
410.440430	5990.517090
407.787109	5962.541992
405.132812	6071.695312
402.477539	6047.336914
399.821289	6078.337891
397.163086	6015.000488
394.504883	6114.875000
391.844727	6023.484863
389.183594	6137.758789
386.521484	6108.898438
383.858398	6034.815430
381.194336	6056.672852
378.528320	6061.331543
375.861328	5994.588379
373.194336	6054.372070
370.525391	6133.065430
367.854492	6130.456543
365.183594	6093.563965
362.511719	6017.020996
359.837891	6142.465332
357.163086	5983.966309
354.487305	6022.849121
351.810547	6099.510254
349.132812	6067.214844
346.453125	6092.515137
343.773438	6148.362793
341.091797	6143.944824
338.409180	6200.618164
335.725586	6359.613770
333.040039	6262.651367
330.354492	6290.485840
327.666992	6326.366211
324.978516	6265.395508
322.289062	6171.320801
319.598633	6333.494629
316.907227	6262.745605
314.213867	6305.712402
311.519531	6333.433105
308.824219	6265.452148
306.127930	6370.028809
303.430664	6287.792969
300.732422	6395.839355
298.032227	6402.922852
295.331055	6366.278320
292.628906	6295.771484
289.925781	6318.930664
287.221680	6342.959473
284.515625	6471.182129
281.808594	6427.454590
279.100586	6423.812012
276.391602	6425.508301
273.681641	6408.527344
270.969727	6327.564453
268.257812	6318.632812
265.543945	6267.968262
262.829102	6339.846191
260.112305	6144.581543
257.395508	6186.291992
254.676758	6173.885254
251.957031	6171.235840
249.236328	6157.071289
246.514648	6019.846680
243.791992	6150.899902
241.067383	6053.601074
238.341797	6092.560547
235.615234	6026.303223
232.887695	6102.344727
230.158203	6011.409180
227.428711	6002.645020
224.697266	6013.298828
221.964844	6103.320312
219.231445	6042.508789
216.496094	5986.153809
213.759766	6035.546875
211.022461	6104.266113
208.284180	6155.322754
205.544922	6222.168457
202.804688	6217.729492
200.062500	6423.361328
197.319336	6545.350098
194.575195	6643.520508
191.829102	6798.662598
189.083008	6892.248535
186.334961	7078.719727
183.585938	7085.309570
180.835938	7192.665527
178.084961	7377.008789
175.332031	7279.265137
172.578125	7185.980469
169.823242	7250.235352
167.067383	7228.741211
164.309570	7095.387207
161.550781	7045.143555
158.791016	6911.980469
156.030273	6835.668457
153.268555	6828.350098
150.504883	6709.401855
147.740234	6458.917480
144.974609	6341.099609
142.208008	6339.226562
139.439453	6284.244141
136.670898	6302.409668
133.900391	6315.338379
131.128906	6429.985840
128.355469	6461.965332
125.581055	6566.021484
122.805664	6666.512695
120.029297	6764.310547
117.251953	6866.359863
114.472656	6841.700684
111.693359	6717.371094
108.911133	6447.576660
106.128906	6302.735352
103.345703	5921.670898
100.560547	5450.937500
